Time[ps]     GFree[eV]    Etot[eV]     Epot[eV]     Ekin[eV]    T[K]      -----stress [GPa] --------     ----- BOX [A] ------ 
0.0010         -72.4860     -82.054     -109.905       27.851   280.6     -0.466     -0.315     -0.576   19.715   19.715   19.715
0.0020         -72.4662     -82.040     -109.322       27.282   274.8     -0.572     -0.221     -0.543   19.715   19.715   19.715
0.0030         -72.4581     -82.039     -109.098       27.059   272.6     -0.649     -0.209     -0.453   19.715   19.715   19.715
0.0040         -72.4714     -82.061     -109.682       27.621   278.2     -0.641     -0.287     -0.358   19.715   19.715   19.715
0.0050         -72.4830     -82.085     -110.301       28.217   284.2     -0.534     -0.403     -0.299   19.715   19.715   19.715
0.0060         -72.4755     -82.094     -110.215       28.121   283.3     -0.378     -0.488     -0.308   19.715   19.715   19.715
0.0070         -72.4607     -82.101     -109.722       27.622   278.2     -0.263     -0.498     -0.393   19.715   19.715   19.715
0.0080         -72.4591     -82.122     -109.615       27.493   276.9     -0.264     -0.433     -0.530   19.715   19.715   19.715
0.0090         -72.4710     -82.160     -110.002       27.842   280.5     -0.397     -0.320     -0.668   19.715   19.715   19.715
0.0100         -72.4774     -82.197     -110.187       27.990   282.0     -0.602     -0.197     -0.758   19.715   19.715   19.715
0.0110         -72.4675     -82.221     -109.738       27.517   277.2     -0.767     -0.112     -0.778   19.715   19.715   19.715
0.0120         -72.4565     -82.245     -109.170       26.925   271.2     -0.810     -0.107     -0.739   19.715   19.715   19.715
0.0130         -72.4619     -82.285     -109.115       26.830   270.3     -0.716     -0.190     -0.670   19.715   19.715   19.715
0.0140         -72.4718     -82.331     -109.345       27.014   272.1     -0.517     -0.336     -0.592   19.715   19.715   19.715
0.0150         -72.4701     -82.365     -109.331       26.965   271.6     -0.300     -0.494     -0.510   19.715   19.715   19.715
0.0160         -72.4662     -82.398     -109.118       26.721   269.2     -0.178     -0.604     -0.440   19.715   19.715   19.715
0.0170         -72.4654     -82.433     -108.935       26.502   267.0     -0.210     -0.612     -0.407   19.716   19.716   19.716
0.0180         -72.4653     -82.468     -108.842       26.374   265.7     -0.374     -0.500     -0.425   19.716   19.716   19.716
0.0190         -72.4675     -82.503     -108.867       26.364   265.6     -0.588     -0.317     -0.493   19.716   19.716   19.716
0.0200         -72.4688     -82.537     -108.909       26.372   265.7     -0.741     -0.162     -0.585   19.716   19.716   19.716
0.0210         -72.4673     -82.566     -108.913       26.347   265.4     -0.757     -0.127     -0.652   19.716   19.716   19.716
0.0220         -72.4692     -82.598     -108.946       26.348   265.4     -0.634     -0.241     -0.661   19.716   19.716   19.716
0.0230         -72.4687     -82.625     -108.929       26.304   265.0     -0.432     -0.446     -0.605   19.716   19.716   19.716
0.0240         -72.4644     -82.648     -108.937       26.289   264.8     -0.259     -0.636     -0.517   19.716   19.716   19.716
0.0250         -72.4690     -82.678     -109.203       26.526   267.2     -0.201     -0.722     -0.453   19.716   19.716   19.716
0.0260         -72.4759     -82.710     -109.515       26.805   270.0     -0.271     -0.652     -0.448   19.716   19.716   19.716
0.0270         -72.4720     -82.731     -109.534       26.803   270.0     -0.415     -0.441     -0.499   19.716   19.716   19.716
0.0280         -72.4656     -82.750     -109.439       26.689   268.8     -0.550     -0.183     -0.579   19.716   19.716   19.716
0.0290         -72.4659     -82.776     -109.580       26.804   270.0     -0.599      0.008     -0.644   19.717   19.717   19.717
0.0300         -72.4715     -82.807     -109.949       27.141   273.4     -0.536      0.059     -0.661   19.717   19.717   19.717
0.0310         -72.4758     -82.839     -110.197       27.357   275.6     -0.393     -0.039     -0.619   19.717   19.717   19.717
0.0320         -72.4719     -82.865     -110.044       27.179   273.8     -0.236     -0.233     -0.537   19.717   19.717   19.717
0.0330         -72.4612     -82.884     -109.737       26.853   270.5     -0.136     -0.439     -0.451   19.717   19.717   19.717
0.0340         -72.4628     -82.916     -109.860       26.945   271.4     -0.161     -0.581     -0.398   19.717   19.717   19.717
0.0350         -72.4761     -82.961     -110.315       27.355   275.6     -0.315     -0.605     -0.383   19.717   19.717   19.717
0.0360         -72.4769     -82.995     -110.403       27.407   276.1     -0.520     -0.497     -0.391   19.717   19.717   19.717
0.0370         -72.4674     -83.021     -110.048       27.027   272.3     -0.678     -0.319     -0.406   19.717   19.717   19.717
0.0380         -72.4634     -83.053     -109.768       26.716   269.1     -0.721     -0.184     -0.423   19.718   19.718   19.718
0.0390         -72.4680     -83.093     -109.800       26.708   269.0     -0.635     -0.188     -0.431   19.718   19.718   19.718
0.0400         -72.4731     -83.133     -109.885       26.753   269.5     -0.468     -0.356     -0.416   19.718   19.718   19.718
0.0410         -72.4710     -83.165     -109.723       26.557   267.5     -0.292     -0.625     -0.383   19.718   19.718   19.718
0.0420         -72.4634     -83.191     -109.473       26.281   264.7     -0.185     -0.873     -0.359   19.718   19.718   19.718
0.0430         -72.4677     -83.228     -109.520       26.293   264.9     -0.201     -0.986     -0.364   19.718   19.718   19.718
0.0440         -72.4766     -83.267     -109.644       26.377   265.7     -0.326     -0.897     -0.383   19.718   19.718   19.718
0.0450         -72.4716     -83.291     -109.419       26.128   263.2     -0.477     -0.628     -0.387   19.719   19.719   19.719
0.0460         -72.4646     -83.311     -109.129       25.818   260.1     -0.566     -0.311     -0.367   19.719   19.719   19.719
0.0470         -72.4703     -83.340     -109.195       25.855   260.4     -0.540     -0.107     -0.343   19.719   19.719   19.719
0.0480         -72.4781     -83.368     -109.386       26.017   262.1     -0.407     -0.107     -0.351   19.719   19.719   19.719
0.0490         -72.4760     -83.385     -109.323       25.939   261.3     -0.235     -0.308     -0.418   19.719   19.719   19.719
0.0500         -72.4710     -83.395     -109.146       25.751   259.4     -0.106     -0.632     -0.546   19.719   19.719   19.719
0.0510         -72.4720     -83.409     -109.204       25.796   259.9     -0.078     -0.933     -0.699   19.720   19.720   19.720
0.0520         -72.4778     -83.425     -109.515       26.091   262.8     -0.172     -1.073     -0.813   19.720   19.720   19.720
0.0530         -72.4825     -83.438     -109.770       26.332   265.3     -0.354     -0.986     -0.827   19.720   19.720   19.720
0.0540         -72.4796     -83.442     -109.743       26.301   264.9     -0.541     -0.697     -0.727   19.720   19.720   19.720
0.0550         -72.4746     -83.442     -109.610       26.168   263.6     -0.648     -0.322     -0.550   19.720   19.720   19.720
0.0560         -72.4765     -83.448     -109.640       26.192   263.8     -0.636     -0.020     -0.365   19.721   19.721   19.721
0.0570         -72.4808     -83.453     -109.746       26.293   264.9     -0.519      0.077     -0.247   19.721   19.721   19.721
0.0580         -72.4774     -83.450     -109.755       26.305   265.0     -0.362     -0.073     -0.235   19.721   19.721   19.721
0.0590         -72.4751     -83.446     -109.827       26.381   265.7     -0.258     -0.404     -0.330   19.721   19.721   19.721
0.0600         -72.4794     -83.448     -110.101       26.653   268.5     -0.260     -0.776     -0.489   19.721   19.721   19.721
0.0610         -72.4820     -83.448     -110.377       26.929   271.3     -0.360     -1.027     -0.629   19.722   19.722   19.722
0.0620         -72.4803     -83.445     -110.499       27.054   272.5     -0.508     -1.043     -0.670   19.722   19.722   19.722
0.0630         -72.4785     -83.443     -110.535       27.092   272.9     -0.634     -0.808     -0.604   19.722   19.722   19.722
0.0640         -72.4790     -83.444     -110.592       27.148   273.5     -0.675     -0.428     -0.477   19.722   19.722   19.722
0.0650         -72.4820     -83.448     -110.640       27.192   273.9     -0.615     -0.084     -0.357   19.723   19.723   19.723
0.0660         -72.4828     -83.452     -110.444       26.992   271.9     -0.487      0.063     -0.301   19.723   19.723   19.723
0.0670         -72.4750     -83.447     -109.977       26.530   267.2     -0.352     -0.053     -0.337   19.723   19.723   19.723
0.0680         -72.4725     -83.446     -109.678       26.232   264.2     -0.280     -0.380     -0.457   19.723   19.723   19.723
0.0690         -72.4786     -83.453     -109.731       26.278   264.7     -0.302     -0.758     -0.606   19.724   19.724   19.724
0.0700         -72.4812     -83.455     -109.841       26.386   265.8     -0.401     -0.995     -0.706   19.724   19.724   19.724
0.0710         -72.4800     -83.452     -109.876       26.424   266.2     -0.520     -0.986     -0.711   19.724   19.724   19.724
0.0720         -72.4783     -83.447     -109.922       26.474   266.7     -0.596     -0.752     -0.620   19.724   19.724   19.724
0.0730         -72.4779     -83.443     -110.088       26.645   268.4     -0.596     -0.417     -0.461   19.725   19.725   19.725
0.0740         -72.4833     -83.444     -110.367       26.922   271.2     -0.533     -0.155     -0.289   19.725   19.725   19.725
0.0750         -72.4873     -83.444     -110.418       26.973   271.7     -0.452     -0.088     -0.165   19.725   19.725   19.725
0.0760         -72.4806     -83.434     -110.004       26.570   267.7     -0.391     -0.232     -0.141   19.725   19.725   19.725
0.0770         -72.4719     -83.421     -109.507       26.086   262.8     -0.388     -0.510     -0.235   19.726   19.726   19.726
0.0780         -72.4739     -83.416     -109.457       26.041   262.3     -0.466     -0.795     -0.402   19.726   19.726   19.726
0.0790         -72.4869     -83.421     -109.762       26.341   265.3     -0.605     -0.962     -0.545   19.726   19.726   19.726
0.0800         -72.4898     -83.415     -109.765       26.350   265.4     -0.736     -0.940     -0.582   19.727   19.727   19.727
0.0810         -72.4765     -83.391     -109.351       25.960   261.5     -0.789     -0.757     -0.500   19.727   19.727   19.727
0.0820         -72.4711     -83.372     -109.247       25.874   260.6     -0.740     -0.516     -0.357   19.727   19.727   19.727
0.0830         -72.4835     -83.369     -109.753       26.384   265.8     -0.612     -0.317     -0.234   19.728   19.728   19.728
0.0840         -72.4953     -83.363     -110.186       26.823   270.2     -0.452     -0.216     -0.193   19.728   19.728   19.728
0.0850         -72.4896     -83.339     -109.899       26.560   267.6     -0.324     -0.223     -0.257   19.728   19.728   19.728
0.0860         -72.4735     -83.304     -109.229       25.924   261.1     -0.288     -0.306     -0.403   19.728   19.728   19.728
0.0870         -72.4713     -83.281     -109.118       25.837   260.3     -0.368     -0.426     -0.566   19.729   19.729   19.729
0.0880         -72.4912     -83.278     -109.710       26.432   266.3     -0.523     -0.539     -0.674   19.729   19.729   19.729
0.0890         -72.5003     -83.263     -109.966       26.703   269.0     -0.655     -0.596     -0.673   19.729   19.729   19.729
0.0900         -72.4817     -83.220     -109.430       26.210   264.0     -0.681     -0.587     -0.572   19.730   19.730   19.730
0.0910         -72.4682     -83.180     -109.114       25.934   261.2     -0.609     -0.546     -0.446   19.730   19.730   19.730
0.0920         -72.4819     -83.165     -109.771       26.606   268.0     -0.495     -0.514     -0.371   19.730   19.730   19.730
0.0930         -72.5015     -83.155     -110.654       27.499   277.0     -0.394     -0.507     -0.370   19.731   19.731   19.731
0.0940         -72.4979     -83.123     -110.653       27.529   277.3     -0.345     -0.511     -0.420   19.731   19.731   19.731
0.0950         -72.4766     -83.077     -109.915       26.839   270.4     -0.362     -0.523     -0.478   19.732   19.732   19.732
0.0960         -72.4700     -83.045     -109.589       26.543   267.4     -0.434     -0.550     -0.507   19.732   19.732   19.732
0.0970         -72.4887     -83.039     -110.034       26.995   271.9     -0.523     -0.584     -0.486   19.732   19.732   19.732
0.0980         -72.4985     -83.024     -110.242       27.218   274.2     -0.579     -0.590     -0.409   19.733   19.733   19.733
0.0990         -72.4812     -82.983     -109.649       26.666   268.6     -0.591     -0.545     -0.311   19.733   19.733   19.733
0.1000         -72.4693     -82.948     -109.164       26.216   264.1     -0.589     -0.475     -0.263   19.733   19.733   19.733
0.1010         -72.4815     -82.935     -109.466       26.531   267.3     -0.607     -0.419     -0.302   19.734   19.734   19.734
0.1020         -72.4943     -82.921     -109.945       27.024   272.2     -0.659     -0.389     -0.411   19.734   19.734   19.734
0.1030         -72.4914     -82.893     -109.854       26.961   271.6     -0.734     -0.392     -0.541   19.735   19.735   19.735
0.1040         -72.4786     -82.856     -109.330       26.473   266.7     -0.797     -0.429     -0.633   19.735   19.735   19.735
0.1050         -72.4746     -82.827     -109.082       26.255   264.5     -0.807     -0.481     -0.656   19.735   19.735   19.735
0.1060         -72.4884     -82.815     -109.301       26.486   266.8     -0.737     -0.518     -0.624   19.736   19.736   19.736
0.1070         -72.4936     -82.792     -109.285       26.493   266.9     -0.594     -0.495     -0.565   19.736   19.736   19.736
0.1080         -72.4794     -82.749     -108.786       26.037   262.3     -0.443     -0.401     -0.520   19.737   19.737   19.737
0.1090         -72.4752     -82.714     -108.532       25.818   260.1     -0.355     -0.307     -0.531   19.737   19.737   19.737
0.1100         -72.4852     -82.690     -108.824       26.134   263.3     -0.368     -0.291     -0.597   19.737   19.737   19.737
0.1110         -72.4914     -82.660     -109.175       26.515   267.1     -0.485     -0.379     -0.670   19.738   19.738   19.738
0.1120         -72.4905     -82.623     -109.211       26.588   267.8     -0.657     -0.550     -0.698   19.738   19.738   19.738
0.1130         -72.4851     -82.581     -108.984       26.403   266.0     -0.798     -0.733     -0.653   19.739   19.739   19.739
0.1140         -72.4818     -82.540     -108.831       26.292   264.8     -0.846     -0.839     -0.548   19.739   19.739   19.739
0.1150         -72.4884     -82.507     -108.929       26.422   266.2     -0.788     -0.812     -0.437   19.740   19.740   19.740
0.1160         -72.4921     -82.470     -108.924       26.453   266.5     -0.653     -0.648     -0.376   19.740   19.740   19.740
0.1170         -72.4843     -82.421     -108.632       26.211   264.0     -0.512     -0.416     -0.400   19.741   19.741   19.741
0.1180         -72.4814     -82.374     -108.449       26.075   262.7     -0.444     -0.235     -0.507   19.741   19.741   19.741
0.1190         -72.4848     -82.331     -108.606       26.274   264.7     -0.494     -0.195     -0.647   19.742   19.742   19.742
0.1200         -72.4890     -82.288     -108.978       26.689   268.9     -0.657     -0.324     -0.749   19.742   19.742   19.742
0.1210         -72.4949     -82.247     -109.280       27.034   272.3     -0.868     -0.566     -0.758   19.743   19.743   19.743
0.1220         -72.4922     -82.198     -109.199       27.001   272.0     -1.034     -0.802     -0.667   19.743   19.743   19.743
0.1230         -72.4837     -82.144     -108.883       26.739   269.4     -1.087     -0.910     -0.522   19.744   19.744   19.744
0.1240         -72.4833     -82.098     -108.760       26.662   268.6     -1.008     -0.833     -0.400   19.744   19.744   19.744
0.1250         -72.4883     -82.057     -108.837       26.780   269.8     -0.825     -0.597     -0.361   19.745   19.745   19.745
0.1260         -72.4896     -82.012     -108.825       26.813   270.1     -0.604     -0.314     -0.422   19.745   19.745   19.745
0.1270         -72.4828     -81.958     -108.661       26.703   269.0     -0.423     -0.136     -0.557   19.746   19.746   19.746
0.1280         -72.4768     -81.905     -108.730       26.825   270.2     -0.367     -0.149     -0.716   19.746   19.746   19.746
0.1290         -72.4859     -81.867     -109.320       27.453   276.5     -0.485     -0.343     -0.835   19.747   19.747   19.747
0.1300         -72.4958     -81.833     -109.915       28.082   282.9     -0.717     -0.614     -0.856   19.747   19.747   19.747
0.1310         -72.4880     -81.785     -109.942       28.157   283.6     -0.945     -0.820     -0.765   19.748   19.748   19.748
0.1320         -72.4761     -81.738     -109.735       27.997   282.0     -1.060     -0.858     -0.608   19.748   19.748   19.748
0.1330         -72.4792     -81.710     -109.852       28.142   283.5     -0.998     -0.724     -0.462   19.749   19.749   19.749
0.1340         -72.4901     -81.694     -110.056       28.362   285.7     -0.786     -0.487     -0.387   19.749   19.749   19.749
0.1350         -72.4877     -81.669     -109.707       28.038   282.4     -0.523     -0.258     -0.407   19.750   19.750   19.750
0.1360         -72.4688     -81.631     -108.903       27.271   274.7     -0.334     -0.141     -0.509   19.751   19.751   19.751
0.1370         -72.4600     -81.606     -108.661       27.056   272.5     -0.331     -0.174     -0.652   19.751   19.751   19.751
0.1380         -72.4796     -81.610     -109.405       27.795   280.0     -0.533     -0.321     -0.775   19.752   19.752   19.752
0.1390         -72.4932     -81.612     -110.054       28.442   286.5     -0.819     -0.492     -0.811   19.752   19.752   19.752
0.1400         -72.4777     -81.592     -109.815       28.224   284.3     -1.036     -0.592     -0.730   19.753   19.753   19.753
0.1410         -72.4633     -81.577     -109.426       27.849   280.5     -1.093     -0.591     -0.571   19.754   19.754   19.754
0.1420         -72.4713     -81.588     -109.626       28.038   282.4     -0.970     -0.508     -0.410   19.754   19.754   19.754
0.1430         -72.4847     -81.609     -109.937       28.328   285.4     -0.719     -0.383     -0.310   19.755   19.755   19.755
0.1440         -72.4800     -81.615     -109.506       27.891   281.0     -0.445     -0.270     -0.312   19.755   19.755   19.755
0.1450         -72.4594     -81.609     -108.513       26.904   271.0     -0.265     -0.216     -0.422   19.756   19.756   19.756
0.1460         -72.4521     -81.614     -108.089       26.474   266.7     -0.256     -0.240     -0.615   19.757   19.757   19.757
0.1470         -72.4696     -81.645     -108.638       26.993   271.9     -0.400     -0.340     -0.827   19.757   19.757   19.757
0.1480         -72.4828     -81.674     -109.222       27.548   277.5     -0.589     -0.487     -0.970   19.758   19.758   19.758
0.1490         -72.4737     -81.684     -109.081       27.397   276.0     -0.700     -0.646     -0.979   19.759   19.759   19.759
0.1500         -72.4573     -81.688     -108.746       27.058   272.6     -0.670     -0.789     -0.854   19.759   19.759   19.759
0.1510         -72.4628     -81.715     -109.081       27.366   275.7     -0.523     -0.883     -0.657   19.760   19.760   19.760
0.1520         -72.4830     -81.759     -109.759       28.000   282.1     -0.330     -0.893     -0.465   19.761   19.761   19.761
