Time[ps]     GFree[eV]    Etot[eV]     Epot[eV]     Ekin[eV]    T[K]      -----stress [GPa] --------     ----- BOX [A] ------ 
0.0010        -209.7453     -230.75      -293.73        62.98   250.6     -0.340     -0.488     -0.270   19.982   20.349   41.379
0.0020        -209.6297     -230.63      -293.47        62.84   250.1     -0.173     -0.450     -0.249   19.982   20.349   41.379
0.0030        -209.6863     -230.69      -294.69        64.00   254.7     -0.014     -0.333     -0.232   19.982   20.349   41.379
0.0040        -209.6813     -230.68      -295.57        64.88   258.2      0.032     -0.203     -0.237   19.982   20.349   41.379
0.0050        -209.6618     -230.66      -294.84        64.18   255.4     -0.061     -0.114     -0.276   19.982   20.349   41.379
0.0060        -209.6800     -230.68      -293.98        63.30   251.9     -0.232     -0.096     -0.326   19.982   20.349   41.379
0.0070        -209.6798     -230.68      -294.38        63.70   253.5     -0.387     -0.161     -0.354   19.982   20.349   41.379
0.0080        -209.6752     -230.68      -295.11        64.43   256.4     -0.478     -0.290     -0.351   19.982   20.349   41.379
0.0090        -209.7047     -230.71      -294.65        63.94   254.5     -0.504     -0.436     -0.350   19.982   20.349   41.379
0.0100        -209.7313     -230.73      -293.26        62.53   248.8     -0.455     -0.539     -0.349   19.982   20.349   41.379
0.0110        -209.7415     -230.74      -292.88        62.14   247.3     -0.323     -0.563     -0.315   19.982   20.349   41.379
0.0120        -209.7836     -230.79      -294.17        63.38   252.2     -0.162     -0.507     -0.232   19.982   20.349   41.379
0.0130        -209.8109     -230.81      -295.27        64.46   256.5     -0.084     -0.407     -0.139   19.982   20.349   41.379
0.0140        -209.7826     -230.79      -294.72        63.94   254.4     -0.145     -0.300     -0.089   19.982   20.349   41.379
0.0150        -209.7292     -230.73      -294.04        63.31   251.9     -0.301     -0.224     -0.096   19.982   20.349   41.379
0.0160        -209.7088     -230.71      -294.80        64.08   255.0     -0.447     -0.214     -0.141   19.982   20.350   41.379
0.0170        -209.6672     -230.67      -295.80        65.13   259.2     -0.521     -0.291     -0.218   19.982   20.350   41.379
0.0180        -209.6450     -230.65      -295.50        64.85   258.1     -0.522     -0.425     -0.322   19.982   20.350   41.379
0.0190        -209.6417     -230.65      -294.09        63.44   252.5     -0.454     -0.549     -0.417   19.982   20.350   41.379
0.0200        -209.6597     -230.66      -293.46        62.79   249.9     -0.322     -0.606     -0.459   19.982   20.350   41.379
0.0210        -209.6684     -230.67      -294.43        63.75   253.7     -0.169     -0.569     -0.423   19.982   20.350   41.379
0.0220        -209.6698     -230.67      -295.41        64.74   257.6     -0.077     -0.448     -0.339   19.982   20.350   41.379
0.0230        -209.6198     -230.62      -294.95        64.33   256.0     -0.098     -0.294     -0.271   19.982   20.350   41.379
0.0240        -209.6819     -230.69      -294.27        63.58   253.0     -0.187     -0.159     -0.257   19.982   20.350   41.379
0.0250        -209.7795     -230.78      -294.83        64.05   254.9     -0.270     -0.093     -0.294   19.982   20.350   41.380
0.0260        -209.8099     -230.82      -295.93        65.12   259.1     -0.318     -0.122     -0.360   19.982   20.350   41.380
0.0270        -209.7283     -230.73      -296.00        65.27   259.7     -0.355     -0.235     -0.435   19.982   20.350   41.380
0.0280        -209.7426     -230.75      -294.77        64.02   254.8     -0.381     -0.382     -0.489   19.982   20.350   41.380
0.0290        -209.8154     -230.82      -293.62        62.80   249.9     -0.363     -0.497     -0.488   19.982   20.350   41.380
0.0300        -209.6842     -230.69      -293.88        63.19   251.5     -0.295     -0.536     -0.413   19.982   20.350   41.380
0.0310        -209.5678     -230.57      -294.89        64.32   256.0     -0.213     -0.484     -0.291   19.982   20.350   41.380
0.0320        -209.6326     -230.64      -294.98        64.34   256.0     -0.173     -0.369     -0.186   19.982   20.350   41.380
0.0330        -209.6634     -230.67      -294.24        63.56   253.0     -0.192     -0.248     -0.145   19.982   20.350   41.380
0.0340        -209.7928     -230.80      -294.48        63.68   253.4     -0.245     -0.159     -0.145   19.982   20.351   41.380
0.0350        -209.8166     -230.82      -295.72        64.90   258.3     -0.318     -0.136     -0.167   19.982   20.351   41.380
0.0360        -209.7053     -230.71      -296.52        65.81   261.9     -0.397     -0.185     -0.206   19.982   20.351   41.380
0.0370        -209.7820     -230.79      -296.11        65.32   260.0     -0.449     -0.293     -0.281   19.982   20.351   41.381
0.0380        -209.7904     -230.80      -294.83        64.03   254.8     -0.440     -0.402     -0.370   19.982   20.351   41.381
0.0390        -209.8338     -230.84      -294.60        63.75   253.7     -0.352     -0.442     -0.424   19.983   20.351   41.381
0.0400        -210.0584     -231.07      -295.80        64.73   257.6     -0.224     -0.395     -0.428   19.983   20.351   41.381
0.0410        -210.1387     -231.15      -296.30        65.16   259.3     -0.117     -0.303     -0.396   19.983   20.351   41.381
0.0420        -210.1028     -231.11      -295.59        64.47   256.6     -0.065     -0.218     -0.352   19.983   20.351   41.381
0.0430        -209.9846     -230.99      -295.01        64.02   254.8     -0.075     -0.151     -0.301   19.983   20.351   41.381
0.0440        -209.8048     -230.81      -295.50        64.68   257.4     -0.144     -0.095     -0.267   19.983   20.351   41.381
0.0450        -209.8063     -230.82      -296.55        65.74   261.6     -0.247     -0.070     -0.279   19.983   20.351   41.382
0.0460        -209.9221     -230.93      -296.68        65.75   261.6     -0.336     -0.124     -0.353   19.983   20.352   41.382
0.0470        -210.0904     -231.10      -295.71        64.61   257.1     -0.365     -0.243     -0.440   19.983   20.352   41.382
0.0480        -210.0609     -231.07      -294.97        63.90   254.3     -0.339     -0.366     -0.495   19.983   20.352   41.382
0.0490        -209.9106     -230.92      -295.38        64.46   256.5     -0.281     -0.418     -0.481   19.983   20.352   41.382
0.0500        -210.0259     -231.04      -295.98        64.94   258.4     -0.214     -0.380     -0.398   19.983   20.352   41.382
0.0510        -210.0650     -231.08      -295.55        64.47   256.6     -0.181     -0.302     -0.294   19.983   20.352   41.382
0.0520        -209.8735     -230.89      -294.88        63.99   254.7     -0.200     -0.187     -0.196   19.983   20.352   41.383
0.0530        -209.8413     -230.85      -295.04        64.18   255.4     -0.268     -0.062     -0.142   19.983   20.352   41.383
0.0540        -209.8577     -230.87      -295.72        64.85   258.1     -0.358      0.008     -0.144   19.983   20.352   41.383
0.0550        -209.9119     -230.92      -296.27        65.34   260.0     -0.415     -0.052     -0.192   19.983   20.352   41.383
0.0560        -210.0074     -231.02      -295.99        64.97   258.6     -0.401     -0.237     -0.266   19.983   20.352   41.383
0.0570        -210.0831     -231.10      -295.35        64.25   255.7     -0.328     -0.443     -0.333   19.983   20.352   41.383
0.0580        -210.0606     -231.07      -295.39        64.31   255.9     -0.244     -0.565     -0.372   19.984   20.353   41.384
0.0590        -209.9043     -230.92      -295.59        64.67   257.4     -0.179     -0.572     -0.371   19.984   20.353   41.384
0.0600        -209.6467     -230.66      -295.04        64.38   256.2     -0.136     -0.492     -0.331   19.984   20.353   41.384
0.0610        -209.7667     -230.78      -294.82        64.03   254.8     -0.113     -0.347     -0.271   19.984   20.353   41.384
0.0620        -209.7626     -230.78      -294.96        64.18   255.4     -0.141     -0.173     -0.242   19.984   20.353   41.384
0.0630        -209.6233     -230.64      -295.16        64.52   256.8     -0.209     -0.033     -0.269   19.984   20.353   41.385
0.0640        -209.4696     -230.49      -295.29        64.81   257.9     -0.271     -0.014     -0.355   19.984   20.353   41.385
0.0650        -209.6107     -230.63      -295.38        64.76   257.7     -0.264     -0.132     -0.457   19.984   20.353   41.385
0.0660        -209.6120     -230.63      -295.11        64.48   256.6     -0.207     -0.322     -0.534   19.984   20.353   41.385
0.0670        -209.6065     -230.62      -295.20        64.58   257.0     -0.151     -0.469     -0.561   19.984   20.353   41.385
0.0680        -209.6130     -230.63      -295.38        64.75   257.7     -0.134     -0.506     -0.533   19.984   20.354   41.386
0.0690        -209.5604     -230.58      -294.94        64.36   256.1     -0.150     -0.422     -0.455   19.984   20.354   41.386
0.0700        -209.6544     -230.67      -294.83        64.16   255.3     -0.189     -0.234     -0.359   19.984   20.354   41.386
0.0710        -209.7214     -230.74      -295.38        64.64   257.3     -0.278      0.001     -0.279   19.984   20.354   41.386
0.0720        -209.7056     -230.73      -295.80        65.07   259.0     -0.414      0.182     -0.228   19.984   20.354   41.387
0.0730        -209.6696     -230.69      -295.77        65.08   259.0     -0.537      0.202     -0.208   19.984   20.354   41.387
0.0740        -209.6117     -230.63      -295.53        64.90   258.3     -0.573      0.033     -0.209   19.985   20.354   41.387
0.0750        -209.5370     -230.56      -295.48        64.93   258.4     -0.506     -0.237     -0.214   19.985   20.354   41.387
0.0760        -209.5831     -230.60      -295.96        65.36   260.1     -0.391     -0.476     -0.216   19.985   20.354   41.388
0.0770        -209.4326     -230.45      -295.98        65.53   260.8     -0.301     -0.593     -0.222   19.985   20.355   41.388
0.0780        -209.3178     -230.34      -295.28        64.94   258.5     -0.244     -0.561     -0.233   19.985   20.355   41.388
0.0790        -209.4929     -230.52      -295.13        64.62   257.2     -0.207     -0.405     -0.233   19.985   20.355   41.388
0.0800        -209.5318     -230.56      -295.89        65.33   260.0     -0.219     -0.187     -0.216   19.985   20.355   41.389
0.0810        -209.6014     -230.63      -296.68        66.06   262.9     -0.283      0.014     -0.196   19.985   20.355   41.389
0.0820        -209.6455     -230.67      -296.68        66.01   262.7     -0.362      0.104     -0.214   19.985   20.355   41.389
0.0830        -209.6015     -230.63      -296.40        65.78   261.8     -0.377      0.043     -0.284   19.985   20.355   41.389
0.0840        -209.5269     -230.55      -296.55        66.00   262.7     -0.296     -0.127     -0.374   19.985   20.355   41.390
0.0850        -209.5720     -230.60      -297.24        66.64   265.2     -0.174     -0.313     -0.445   19.986   20.355   41.390
0.0860        -209.5298     -230.56      -297.18        66.62   265.1     -0.104     -0.440     -0.489   19.986   20.356   41.390
0.0870        -209.6436     -230.67      -296.13        65.46   260.5     -0.099     -0.429     -0.482   19.986   20.356   41.391
0.0880        -209.6739     -230.70      -295.25        64.55   256.9     -0.167     -0.293     -0.439   19.986   20.356   41.391
0.0890        -209.6926     -230.72      -295.56        64.84   258.0     -0.295     -0.074     -0.360   19.986   20.356   41.391
0.0900        -209.6488     -230.68      -295.93        65.25   259.7     -0.466      0.129     -0.277   19.986   20.356   41.391
0.0910        -209.6841     -230.71      -295.46        64.75   257.7     -0.618      0.218     -0.223   19.986   20.356   41.392
0.0920        -209.8309     -230.86      -294.72        63.86   254.1     -0.668      0.141     -0.215   19.986   20.356   41.392
0.0930        -209.8605     -230.89      -294.50        63.61   253.2     -0.580     -0.074     -0.230   19.986   20.356   41.392
0.0940        -209.6863     -230.72      -294.83        64.11   255.1     -0.407     -0.346     -0.240   19.986   20.356   41.393
0.0950        -209.5596     -230.59      -294.83        64.24   255.6     -0.253     -0.567     -0.237   19.986   20.356   41.393
0.0960        -209.6085     -230.64      -293.62        62.98   250.6     -0.183     -0.653     -0.220   19.987   20.357   41.393
0.0970        -209.5744     -230.61      -292.17        61.57   245.0     -0.214     -0.591     -0.196   19.987   20.357   41.394
0.0980        -209.5253     -230.56      -292.32        61.76   245.8     -0.309     -0.411     -0.152   19.987   20.357   41.394
0.0990        -209.5848     -230.62      -293.44        62.82   250.0     -0.428     -0.192     -0.118   19.987   20.357   41.394
0.1000        -209.6315     -230.67      -293.66        62.99   250.7     -0.527     -0.034     -0.137   19.987   20.357   41.395
0.1010        -209.5863     -230.62      -293.00        62.38   248.3     -0.545     -0.013     -0.228   19.987   20.357   41.395
0.1020        -209.7056     -230.74      -293.26        62.52   248.8     -0.432     -0.113     -0.330   19.987   20.357   41.395
0.1030        -209.6690     -230.70      -294.53        63.83   254.0     -0.240     -0.279     -0.380   19.987   20.357   41.395
0.1040        -209.6810     -230.72      -295.75        65.03   258.8     -0.080     -0.441     -0.369   19.988   20.357   41.396
0.1050        -209.7284     -230.76      -295.56        64.79   257.8     -0.029     -0.518     -0.309   19.988   20.358   41.396
0.1060        -209.7208     -230.76      -294.59        63.83   254.0     -0.093     -0.482     -0.248   19.988   20.358   41.396
0.1070        -209.6522     -230.69      -294.63        63.94   254.4     -0.227     -0.325     -0.201   19.988   20.358   41.397
0.1080        -209.5730     -230.61      -295.62        65.01   258.7     -0.378     -0.109     -0.184   19.988   20.358   41.397
0.1090        -209.6517     -230.69      -296.13        65.44   260.4     -0.494      0.047     -0.225   19.988   20.358   41.397
0.1100        -209.6802     -230.72      -295.68        64.96   258.5     -0.527      0.056     -0.300   19.988   20.358   41.398
0.1110        -209.7674     -230.81      -295.56        64.75   257.7     -0.447     -0.084     -0.343   19.989   20.358   41.398
0.1120        -209.9382     -230.98      -296.32        65.34   260.0     -0.287     -0.297     -0.304   19.989   20.358   41.398
0.1130        -210.0123     -231.05      -297.12        66.06   262.9     -0.144     -0.486     -0.199   19.989   20.359   41.399
0.1140        -210.0143     -231.06      -296.87        65.81   261.9     -0.097     -0.571     -0.076   19.989   20.359   41.399
0.1150        -209.9468     -230.99      -295.51        64.52   256.8     -0.159     -0.535      0.006   19.989   20.359   41.399
0.1160        -209.8751     -230.92      -294.53        63.61   253.2     -0.280     -0.398      0.031   19.989   20.359   41.400
0.1170        -209.7220     -230.77      -294.47        63.71   253.5     -0.410     -0.225     -0.001   19.989   20.359   41.400
0.1180        -209.7412     -230.78      -294.56        63.78   253.8     -0.503     -0.117     -0.092   19.990   20.359   41.400
0.1190        -209.8756     -230.92      -294.12        63.20   251.5     -0.518     -0.144     -0.207   19.990   20.359   41.401
0.1200        -209.8404     -230.89      -293.48        62.59   249.1     -0.442     -0.295     -0.290   19.990   20.359   41.401
0.1210        -209.8350     -230.88      -293.47        62.59   249.1     -0.296     -0.486     -0.302   19.990   20.360   41.401
0.1220        -209.7857     -230.83      -293.81        62.98   250.6     -0.152     -0.634     -0.256   19.990   20.360   41.402
0.1230        -209.8582     -230.91      -293.98        63.08   251.0     -0.059     -0.665     -0.176   19.990   20.360   41.402
0.1240        -209.7865     -230.83      -293.43        62.59   249.1     -0.043     -0.576     -0.123   19.991   20.360   41.402
0.1250        -209.7982     -230.85      -292.95        62.10   247.1     -0.096     -0.388     -0.130   19.991   20.360   41.403
0.1260        -209.7176     -230.77      -292.87        62.10   247.1     -0.190     -0.158     -0.194   19.991   20.360   41.403
0.1270        -209.7313     -230.78      -293.20        62.42   248.4     -0.287      0.020     -0.296   19.991   20.360   41.403
0.1280        -209.7307     -230.78      -293.51        62.73   249.7     -0.348      0.054     -0.394   19.991   20.361   41.403
0.1290        -209.7777     -230.83      -293.67        62.84   250.1     -0.353     -0.081     -0.438   19.991   20.361   41.404
0.1300        -209.7576     -230.81      -293.74        62.93   250.4     -0.303     -0.308     -0.399   19.991   20.361   41.404
0.1310        -209.8165     -230.87      -294.36        63.49   252.7     -0.222     -0.496     -0.285   19.992   20.361   41.404
0.1320        -209.8203     -230.87      -295.13        64.26   255.7     -0.165     -0.546     -0.141   19.992   20.361   41.405
0.1330        -209.8215     -230.88      -295.44        64.57   257.0     -0.175     -0.451     -0.032   19.992   20.361   41.405
0.1340        -209.7856     -230.84      -295.20        64.36   256.1     -0.246     -0.269      0.014   19.992   20.362   41.405
0.1350        -209.6581     -230.71      -294.77        64.05   254.9     -0.338     -0.087     -0.007   19.992   20.362   41.406
0.1360        -209.6719     -230.73      -294.72        64.00   254.7     -0.394      0.015     -0.072   19.992   20.362   41.406
0.1370        -209.7412     -230.80      -295.08        64.28   255.8     -0.390     -0.028     -0.142   19.993   20.362   41.406
0.1380        -209.7487     -230.80      -295.22        64.42   256.3     -0.331     -0.214     -0.197   19.993   20.362   41.407
0.1390        -209.7889     -230.85      -295.00        64.16   255.3     -0.225     -0.453     -0.225   19.993   20.362   41.407
0.1400        -209.9540     -231.01      -295.17        64.16   255.3     -0.100     -0.623     -0.208   19.993   20.363   41.407
0.1410        -209.9385     -231.00      -295.56        64.56   256.9     -0.009     -0.647     -0.141   19.993   20.363   41.408
0.1420        -209.8357     -230.89      -295.72        64.83   258.0     -0.004     -0.547     -0.081   19.994   20.363   41.408
0.1430        -209.8576     -230.92      -295.54        64.63   257.2     -0.058     -0.353     -0.038   19.994   20.363   41.408
0.1440        -209.8570     -230.92      -294.98        64.06   255.0     -0.139     -0.152     -0.062   19.994   20.363   41.409
0.1450        -209.8479     -230.91      -294.57        63.67   253.4     -0.214     -0.004     -0.154   19.994   20.363   41.409
0.1460        -209.8473     -230.91      -294.75        63.85   254.1     -0.264      0.046     -0.279   19.994   20.364   41.409
0.1470        -209.8229     -230.88      -295.04        64.16   255.3     -0.275     -0.023     -0.397   19.994   20.364   41.409
0.1480        -209.7609     -230.82      -294.77        63.95   254.5     -0.244     -0.193     -0.467   19.994   20.364   41.410
0.1490        -209.8813     -230.94      -294.56        63.62   253.2     -0.170     -0.379     -0.435   19.995   20.364   41.410
0.1500        -209.8370     -230.90      -294.71        63.81   253.9     -0.098     -0.485     -0.312   19.995   20.364   41.410
0.1510        -209.7001     -230.76      -295.17        64.40   256.3     -0.069     -0.457     -0.159   19.995   20.364   41.411
0.1520        -209.5651     -230.63      -295.36        64.73   257.6     -0.089     -0.322     -0.028   19.995   20.365   41.411
