Time[ps]     GFree[eV]    Etot[eV]     Epot[eV]     Ekin[eV]    T[K]      -----stress [GPa] --------     ----- BOX [A] ------ 
0.0010        -167.7395     -230.75      -293.73        62.98   250.6     -0.340     -0.488     -0.270   19.982   20.349   41.379
0.0020        -167.6239     -230.63      -293.47        62.84   250.1     -0.173     -0.450     -0.249   19.982   20.349   41.379
0.0030        -167.6806     -230.69      -294.69        64.00   254.7     -0.014     -0.333     -0.233   19.982   20.349   41.379
0.0040        -167.6755     -230.68      -295.57        64.88   258.2      0.032     -0.203     -0.238   19.982   20.349   41.379
0.0050        -167.6561     -230.66      -294.84        64.18   255.4     -0.062     -0.115     -0.276   19.982   20.349   41.379
0.0060        -167.6743     -230.68      -293.98        63.30   251.9     -0.232     -0.096     -0.327   19.982   20.349   41.379
0.0070        -167.6740     -230.68      -294.38        63.70   253.5     -0.388     -0.162     -0.354   19.982   20.349   41.379
0.0080        -167.6695     -230.68      -295.11        64.43   256.4     -0.479     -0.291     -0.351   19.982   20.349   41.378
0.0090        -167.6990     -230.71      -294.65        63.94   254.5     -0.505     -0.436     -0.350   19.981   20.349   41.378
0.0100        -167.7256     -230.73      -293.26        62.53   248.8     -0.456     -0.540     -0.349   19.981   20.349   41.378
0.0110        -167.7359     -230.74      -292.88        62.14   247.3     -0.324     -0.563     -0.316   19.981   20.349   41.378
0.0120        -167.7780     -230.78      -294.17        63.39   252.3     -0.163     -0.508     -0.233   19.981   20.349   41.378
0.0130        -167.8054     -230.81      -295.27        64.46   256.5     -0.085     -0.408     -0.140   19.981   20.349   41.378
0.0140        -167.7772     -230.78      -294.72        63.94   254.4     -0.147     -0.301     -0.090   19.981   20.349   41.378
0.0150        -167.7237     -230.73      -294.04        63.31   251.9     -0.302     -0.225     -0.097   19.981   20.349   41.378
0.0160        -167.7031     -230.71      -294.80        64.09   255.0     -0.449     -0.216     -0.142   19.981   20.349   41.378
0.0170        -167.6614     -230.67      -295.80        65.13   259.2     -0.523     -0.293     -0.220   19.981   20.349   41.377
0.0180        -167.6392     -230.64      -295.50        64.86   258.1     -0.524     -0.427     -0.324   19.981   20.349   41.377
0.0190        -167.6360     -230.64      -294.08        63.44   252.5     -0.457     -0.552     -0.420   19.981   20.349   41.377
0.0200        -167.6549     -230.66      -293.46        62.80   249.9     -0.325     -0.609     -0.461   19.981   20.348   41.377
0.0210        -167.6634     -230.67      -294.43        63.76   253.7     -0.171     -0.572     -0.426   19.981   20.348   41.377
0.0220        -167.6650     -230.67      -295.41        64.74   257.7     -0.080     -0.452     -0.342   19.981   20.348   41.376
0.0230        -167.6145     -230.62      -294.95        64.34   256.0     -0.102     -0.298     -0.275   19.980   20.348   41.376
0.0240        -167.6765     -230.68      -294.27        63.59   253.1     -0.191     -0.162     -0.261   19.980   20.348   41.376
0.0250        -167.7740     -230.78      -294.83        64.05   254.9     -0.274     -0.098     -0.298   19.980   20.348   41.376
0.0260        -167.8043     -230.81      -295.93        65.12   259.2     -0.322     -0.127     -0.365   19.980   20.348   41.376
0.0270        -167.7237     -230.72      -296.00        65.28   259.8     -0.359     -0.240     -0.439   19.980   20.348   41.375
0.0280        -167.7380     -230.74      -294.77        64.03   254.8     -0.386     -0.387     -0.494   19.980   20.348   41.375
0.0290        -167.8114     -230.81      -293.62        62.81   250.0     -0.369     -0.503     -0.494   19.980   20.348   41.375
0.0300        -167.6794     -230.68      -293.88        63.20   251.5     -0.301     -0.542     -0.418   19.980   20.348   41.374
0.0310        -167.5632     -230.56      -294.89        64.33   256.0     -0.219     -0.490     -0.297   19.979   20.347   41.374
0.0320        -167.6277     -230.62      -294.98        64.35   256.1     -0.179     -0.375     -0.192   19.979   20.347   41.374
0.0330        -167.6584     -230.66      -294.24        63.58   253.0     -0.199     -0.256     -0.152   19.979   20.347   41.374
0.0340        -167.7871     -230.78      -294.48        63.70   253.5     -0.252     -0.167     -0.152   19.979   20.347   41.373
0.0350        -167.8107     -230.81      -295.72        64.91   258.3     -0.325     -0.144     -0.175   19.979   20.347   41.373
0.0360        -167.7020     -230.70      -296.52        65.82   262.0     -0.405     -0.193     -0.214   19.979   20.347   41.373
0.0370        -167.7785     -230.77      -296.12        65.34   260.0     -0.458     -0.301     -0.289   19.978   20.347   41.372
0.0380        -167.7846     -230.78      -294.83        64.06   254.9     -0.449     -0.411     -0.379   19.978   20.347   41.372
0.0390        -167.8289     -230.82      -294.60        63.77   253.8     -0.362     -0.451     -0.433   19.978   20.346   41.372
0.0400        -168.0531     -231.04      -295.79        64.75   257.7     -0.234     -0.405     -0.437   19.978   20.346   41.371
0.0410        -168.1353     -231.13      -296.31        65.18   259.4     -0.127     -0.314     -0.407   19.978   20.346   41.371
0.0420        -168.1000     -231.09      -295.59        64.50   256.7     -0.075     -0.229     -0.362   19.978   20.346   41.371
0.0430        -167.9822     -230.97      -295.02        64.05   254.9     -0.085     -0.163     -0.312   19.977   20.346   41.370
0.0440        -167.8019     -230.79      -295.50        64.71   257.5     -0.155     -0.107     -0.278   19.977   20.346   41.370
0.0450        -167.8040     -230.79      -296.55        65.76   261.7     -0.259     -0.082     -0.291   19.977   20.345   41.369
0.0460        -167.9196     -230.91      -296.69        65.78   261.8     -0.348     -0.137     -0.366   19.977   20.345   41.369
0.0470        -168.0891     -231.08      -295.72        64.65   257.3     -0.378     -0.256     -0.454   19.977   20.345   41.369
0.0480        -168.0602     -231.05      -294.98        63.94   254.5     -0.353     -0.380     -0.509   19.976   20.345   41.368
0.0490        -167.9111     -230.89      -295.39        64.49   256.7     -0.295     -0.433     -0.496   19.976   20.345   41.368
0.0500        -168.0221     -231.00      -295.98        64.97   258.6     -0.229     -0.397     -0.413   19.976   20.344   41.367
0.0510        -168.0621     -231.04      -295.56        64.52   256.8     -0.197     -0.319     -0.310   19.976   20.344   41.367
0.0520        -167.8715     -230.85      -294.89        64.04   254.8     -0.216     -0.204     -0.211   19.975   20.344   41.366
0.0530        -167.8346     -230.81      -295.04        64.23   255.6     -0.285     -0.079     -0.158   19.975   20.344   41.366
0.0540        -167.8547     -230.83      -295.72        64.89   258.2     -0.375     -0.010     -0.161   19.975   20.344   41.365
0.0550        -167.9040     -230.88      -296.27        65.39   260.2     -0.433     -0.069     -0.210   19.975   20.343   41.365
0.0560        -167.9984     -230.98      -296.00        65.02   258.8     -0.420     -0.254     -0.284   19.974   20.343   41.365
0.0570        -168.0756     -231.05      -295.36        64.31   255.9     -0.348     -0.462     -0.352   19.974   20.343   41.364
0.0580        -168.0546     -231.03      -295.40        64.37   256.2     -0.265     -0.586     -0.392   19.974   20.343   41.364
0.0590        -167.8985     -230.87      -295.59        64.72   257.6     -0.200     -0.594     -0.391   19.974   20.342   41.363
0.0600        -167.6319     -230.60      -295.04        64.44   256.4     -0.157     -0.515     -0.352   19.973   20.342   41.362
0.0610        -167.7531     -230.72      -294.82        64.10   255.1     -0.135     -0.370     -0.293   19.973   20.342   41.362
0.0620        -167.7503     -230.72      -294.96        64.24   255.7     -0.163     -0.197     -0.263   19.973   20.342   41.361
0.0630        -167.6110     -230.58      -295.16        64.58   257.0     -0.231     -0.056     -0.291   19.972   20.341   41.361
0.0640        -167.4515     -230.42      -295.29        64.87   258.2     -0.295     -0.036     -0.378   19.972   20.341   41.360
0.0650        -167.5971     -230.56      -295.39        64.83   258.0     -0.290     -0.154     -0.480   19.972   20.341   41.360
0.0660        -167.6034     -230.57      -295.13        64.56   256.9     -0.233     -0.344     -0.559   19.971   20.341   41.359
0.0670        -167.5958     -230.56      -295.22        64.66   257.3     -0.177     -0.493     -0.587   19.971   20.340   41.359
0.0680        -167.5998     -230.56      -295.39        64.83   258.0     -0.161     -0.533     -0.560   19.971   20.340   41.358
0.0690        -167.5579     -230.52      -294.97        64.45   256.5     -0.177     -0.451     -0.483   19.971   20.340   41.357
0.0700        -167.6447     -230.60      -294.85        64.25   255.7     -0.217     -0.265     -0.387   19.970   20.339   41.357
0.0710        -167.7118     -230.67      -295.40        64.73   257.6     -0.306     -0.030     -0.307   19.970   20.339   41.356
0.0720        -167.6968     -230.65      -295.82        65.16   259.3     -0.444      0.152     -0.256   19.970   20.339   41.356
0.0730        -167.6559     -230.61      -295.78        65.17   259.3     -0.569      0.174     -0.237   19.969   20.339   41.355
0.0740        -167.6037     -230.56      -295.55        64.99   258.6     -0.606      0.007     -0.238   19.969   20.338   41.355
0.0750        -167.5232     -230.47      -295.49        65.02   258.7     -0.539     -0.264     -0.244   19.968   20.338   41.354
0.0760        -167.5604     -230.51      -295.96        65.45   260.5     -0.425     -0.506     -0.248   19.968   20.338   41.353
0.0770        -167.4071     -230.35      -295.99        65.63   261.2     -0.335     -0.626     -0.255   19.968   20.337   41.353
0.0780        -167.2783     -230.22      -295.28        65.06   258.9     -0.277     -0.597     -0.265   19.967   20.337   41.352
0.0790        -167.4657     -230.41      -295.14        64.73   257.6     -0.241     -0.443     -0.266   19.967   20.337   41.351
0.0800        -167.5094     -230.45      -295.89        65.44   260.4     -0.253     -0.226     -0.249   19.967   20.336   41.351
0.0810        -167.5767     -230.52      -296.69        66.17   263.3     -0.319     -0.023     -0.229   19.966   20.336   41.350
0.0820        -167.6145     -230.55      -296.69        66.13   263.2     -0.399      0.068     -0.249   19.966   20.335   41.349
0.0830        -167.5799     -230.52      -296.41        65.89   262.2     -0.417      0.009     -0.320   19.966   20.335   41.349
0.0840        -167.5229     -230.46      -296.57        66.11   263.1     -0.337     -0.159     -0.411   19.965   20.335   41.348
0.0850        -167.5675     -230.50      -297.25        66.74   265.6     -0.216     -0.348     -0.484   19.965   20.334   41.347
0.0860        -167.5236     -230.46      -297.20        66.74   265.6     -0.146     -0.478     -0.528   19.964   20.334   41.346
0.0870        -167.6378     -230.57      -296.15        65.58   261.0     -0.142     -0.472     -0.522   19.964   20.334   41.346
0.0880        -167.6702     -230.60      -295.25        64.66   257.3     -0.210     -0.340     -0.478   19.964   20.333   41.345
0.0890        -167.6897     -230.62      -295.55        64.93   258.4     -0.337     -0.123     -0.400   19.963   20.333   41.344
0.0900        -167.6405     -230.57      -295.93        65.36   260.1     -0.510      0.080     -0.319   19.963   20.332   41.344
0.0910        -167.6731     -230.60      -295.48        64.88   258.2     -0.663      0.171     -0.267   19.962   20.332   41.343
0.0920        -167.8227     -230.74      -294.74        63.99   254.7     -0.717      0.097     -0.262   19.962   20.332   41.342
0.0930        -167.8637     -230.78      -294.50        63.72   253.6     -0.632     -0.117     -0.280   19.962   20.331   41.341
0.0940        -167.6988     -230.62      -294.82        64.21   255.5     -0.460     -0.389     -0.291   19.961   20.331   41.340
0.0950        -167.5595     -230.47      -294.84        64.37   256.2     -0.305     -0.613     -0.286   19.961   20.330   41.340
0.0960        -167.6121     -230.52      -293.66        63.14   251.3     -0.234     -0.703     -0.269   19.960   20.330   41.339
0.0970        -167.5751     -230.48      -292.20        61.71   245.6     -0.264     -0.647     -0.243   19.960   20.329   41.338
0.0980        -167.5215     -230.43      -292.30        61.87   246.2     -0.359     -0.470     -0.198   19.960   20.329   41.337
0.0990        -167.5795     -230.48      -293.44        62.95   250.5     -0.479     -0.252     -0.166   19.959   20.328   41.336
0.1000        -167.6292     -230.53      -293.71        63.18   251.4     -0.580     -0.093     -0.187   19.959   20.328   41.336
0.1010        -167.5875     -230.49      -293.09        62.60   249.1     -0.600     -0.068     -0.281   19.958   20.328   41.335
0.1020        -167.6863     -230.59      -293.28        62.70   249.5     -0.492     -0.166     -0.387   19.958   20.327   41.334
0.1030        -167.6575     -230.55      -294.53        63.98   254.6     -0.302     -0.331     -0.439   19.957   20.327   41.333
0.1040        -167.6816     -230.58      -295.79        65.22   259.5     -0.142     -0.494     -0.429   19.957   20.326   41.332
0.1050        -167.7264     -230.62      -295.65        65.03   258.8     -0.089     -0.575     -0.367   19.956   20.326   41.331
0.1060        -167.7310     -230.62      -294.69        64.07   255.0     -0.152     -0.543     -0.303   19.956   20.325   41.330
0.1070        -167.6575     -230.54      -294.66        64.12   255.2     -0.285     -0.392     -0.255   19.956   20.325   41.330
0.1080        -167.5771     -230.46      -295.63        65.17   259.3     -0.437     -0.180     -0.238   19.955   20.324   41.329
0.1090        -167.6468     -230.53      -296.18        65.65   261.3     -0.555     -0.024     -0.281   19.955   20.324   41.328
0.1100        -167.6743     -230.56      -295.75        65.19   259.4     -0.590     -0.011     -0.360   19.954   20.323   41.327
0.1110        -167.7674     -230.65      -295.61        64.96   258.5     -0.514     -0.149     -0.410   19.954   20.323   41.326
0.1120        -167.9381     -230.81      -296.32        65.51   260.7     -0.360     -0.361     -0.375   19.953   20.322   41.325
0.1130        -168.0265     -230.90      -297.11        66.21   263.5     -0.220     -0.553     -0.272   19.953   20.322   41.324
0.1140        -168.0231     -230.89      -296.88        65.99   262.6     -0.172     -0.639     -0.145   19.952   20.321   41.323
0.1150        -167.9565     -230.82      -295.56        64.73   257.6     -0.231     -0.608     -0.058   19.952   20.321   41.322
0.1160        -167.9025     -230.77      -294.56        63.79   253.9     -0.350     -0.476     -0.030   19.951   20.320   41.321
0.1170        -167.7388     -230.60      -294.44        63.83   254.0     -0.480     -0.307     -0.060   19.951   20.320   41.320
0.1180        -167.7355     -230.60      -294.52        63.93   254.4     -0.574     -0.199     -0.154   19.950   20.319   41.319
0.1190        -167.8781     -230.74      -294.14        63.40   252.3     -0.591     -0.223     -0.274   19.950   20.319   41.318
0.1200        -167.8433     -230.70      -293.52        62.83   250.0     -0.519     -0.371     -0.364   19.949   20.318   41.317
0.1210        -167.8359     -230.69      -293.50        62.81   250.0     -0.378     -0.562     -0.383   19.949   20.318   41.316
0.1220        -167.7830     -230.63      -293.82        63.19   251.5     -0.237     -0.710     -0.340   19.948   20.317   41.315
0.1230        -167.8454     -230.69      -294.00        63.31   251.9     -0.144     -0.744     -0.261   19.948   20.317   41.314
0.1240        -167.7782     -230.62      -293.51        62.89   250.3     -0.125     -0.656     -0.203   19.947   20.316   41.313
0.1250        -167.7691     -230.61      -293.03        62.42   248.4     -0.175     -0.473     -0.204   19.947   20.316   41.312
0.1260        -167.7046     -230.54      -292.94        62.40   248.3     -0.270     -0.247     -0.264   19.946   20.315   41.311
0.1270        -167.6977     -230.53      -293.22        62.69   249.5     -0.369     -0.069     -0.366   19.946   20.314   41.309
0.1280        -167.6993     -230.53      -293.56        63.03   250.8     -0.432     -0.031     -0.469   19.945   20.314   41.308
0.1290        -167.7777     -230.61      -293.80        63.20   251.5     -0.438     -0.159     -0.522   19.945   20.313   41.307
0.1300        -167.7612     -230.59      -293.90        63.31   251.9     -0.390     -0.384     -0.492   19.944   20.313   41.306
0.1310        -167.8023     -230.63      -294.45        63.82   254.0     -0.314     -0.576     -0.385   19.944   20.312   41.305
0.1320        -167.8160     -230.64      -295.20        64.57   256.9     -0.258     -0.632     -0.242   19.943   20.312   41.304
0.1330        -167.8231     -230.64      -295.55        64.91   258.3     -0.266     -0.544     -0.126   19.943   20.311   41.303
0.1340        -167.7897     -230.60      -295.35        64.74   257.6     -0.336     -0.368     -0.070   19.942   20.311   41.302
0.1350        -167.6876     -230.50      -294.92        64.42   256.4     -0.428     -0.191     -0.081   19.942   20.310   41.300
0.1360        -167.6717     -230.48      -294.80        64.32   256.0     -0.487     -0.091     -0.145   19.941   20.309   41.299
0.1370        -167.7339     -230.54      -295.10        64.56   256.9     -0.484     -0.130     -0.222   19.940   20.309   41.298
0.1380        -167.7556     -230.56      -295.30        64.74   257.6     -0.425     -0.308     -0.286   19.940   20.308   41.297
0.1390        -167.7749     -230.58      -295.11        64.53   256.8     -0.322     -0.544     -0.324   19.939   20.308   41.296
0.1400        -167.9472     -230.75      -295.23        64.49   256.6     -0.202     -0.718     -0.316   19.939   20.307   41.294
0.1410        -167.9552     -230.75      -295.60        64.85   258.1     -0.112     -0.748     -0.251   19.938   20.306   41.293
0.1420        -167.8685     -230.66      -295.79        65.13   259.2     -0.104     -0.653     -0.187   19.938   20.306   41.292
0.1430        -167.8428     -230.63      -295.59        64.96   258.5     -0.157     -0.466     -0.135   19.937   20.305   41.291
0.1440        -167.8541     -230.64      -295.05        64.41   256.3     -0.237     -0.268     -0.148   19.936   20.305   41.289
0.1450        -167.8391     -230.62      -294.60        63.98   254.6     -0.314     -0.122     -0.238   19.936   20.304   41.288
0.1460        -167.8204     -230.60      -294.72        64.11   255.1     -0.364     -0.069     -0.369   19.935   20.304   41.287
0.1470        -167.7944     -230.57      -295.04        64.47   256.6     -0.375     -0.131     -0.497   19.935   20.303   41.285
0.1480        -167.7542     -230.53      -294.88        64.35   256.1     -0.346     -0.292     -0.578   19.934   20.302   41.284
0.1490        -167.8634     -230.63      -294.63        64.00   254.7     -0.278     -0.479     -0.561   19.933   20.302   41.283
0.1500        -167.8294     -230.60      -294.75        64.16   255.3     -0.209     -0.591     -0.443   19.933   20.301   41.282
0.1510        -167.7226     -230.49      -295.26        64.77   257.8     -0.179     -0.572     -0.285   19.932   20.300   41.280
0.1520        -167.5523     -230.31      -295.43        65.12   259.2     -0.198     -0.444     -0.145   19.931   20.300   41.279
